 # E(MeV)  SigT  SigInela  SigEla  (mb)
    1.00        0.00        0.00        0.00    
    1.26        0.00        0.00        0.00    
    1.58        0.00        0.00        0.00    
    2.00        0.00        0.00        0.00    
    2.51        0.00        0.00        0.00    
    3.16        0.00        0.00        0.00    
    3.98        0.00        0.00        0.00    
    5.01        0.00        0.00        0.00    
    6.31        0.00        0.00        0.00    
    7.94        0.00        0.00        0.00    
    10.0        0.00        0.00        0.00    
    12.6        0.00        0.00        0.00    
    15.8        198.        198.        0.00    
    20.0        516.        516.        0.00    
    25.1        767.        767.        0.00    
    31.6        961.        961.        0.00    
    39.8       1.112E+03   1.112E+03    0.00    
    50.1       1.226E+03   1.226E+03    0.00    
    63.1       1.315E+03   1.315E+03    0.00    
    79.4       1.381E+03   1.381E+03    0.00    
    100.       1.425E+03   1.425E+03    0.00    
    126.       1.442E+03   1.442E+03    0.00    
    158.       1.466E+03   1.466E+03    0.00    
    200.       1.458E+03   1.458E+03    0.00    
    251.       1.433E+03   1.433E+03    0.00    
    316.       1.380E+03   1.380E+03    0.00    
    398.       1.274E+03   1.274E+03    0.00    
    501.       1.154E+03   1.154E+03    0.00    
    631.       1.054E+03   1.054E+03    0.00    
    794.       1.014E+03   1.014E+03    0.00    
   1.000E+03    943.        943.        0.00    
   1.259E+03    900.        900.        0.00    
   1.585E+03    862.        862.        0.00    
   1.995E+03    839.        839.        0.00    
   2.512E+03    838.        838.        0.00    
   3.162E+03    846.        846.        0.00    
   3.981E+03    871.        871.        0.00    
   5.012E+03    886.        886.        0.00    
   6.310E+03    896.        896.        0.00    
   7.943E+03    896.        896.        0.00    
   1.000E+04    884.        884.        0.00    
   1.259E+04    879.        879.        0.00    
   1.585E+04    868.        868.        0.00    
   1.995E+04    868.        868.        0.00    
   2.512E+04    868.        868.        0.00    
   3.162E+04    868.        868.        0.00    
   3.981E+04    868.        868.        0.00    
   5.012E+04    867.        867.        0.00    
   6.310E+04    867.        867.        0.00    
   7.943E+04    867.        867.        0.00    
   1.000E+05    867.        867.        0.00    
   1.259E+05    867.        867.        0.00    
   1.585E+05    867.        867.        0.00    
   1.995E+05    867.        867.        0.00    
   2.512E+05    867.        867.        0.00    
   3.162E+05    866.        866.        0.00    
   3.981E+05    866.        866.        0.00    
   5.012E+05    866.        866.        0.00    
   6.310E+05    866.        866.        0.00    
   7.943E+05    866.        866.        0.00    
   1.000E+06    866.        866.        0.00    
   1.259E+06    866.        866.        0.00    
   1.585E+06    866.        866.        0.00    
   1.995E+06    866.        866.        0.00    
   2.512E+06    866.        866.        0.00    
   3.162E+06    866.        866.        0.00    
   3.981E+06    866.        866.        0.00    
   5.012E+06    866.        866.        0.00    
   6.310E+06    866.        866.        0.00    
   7.943E+06    866.        866.        0.00    
   1.000E+07    866.        866.        0.00    
   1.259E+07    866.        866.        0.00    
   1.585E+07    866.        866.        0.00    
   1.995E+07    866.        866.        0.00    
   2.512E+07    865.        865.        0.00    
   3.162E+07    865.        865.        0.00    
   3.981E+07    865.        865.        0.00    
   5.012E+07    865.        865.        0.00    
   6.310E+07    865.        865.        0.00    
   7.943E+07    865.        865.        0.00    
   1.000E+08    865.        865.        0.00    
   1.259E+08    865.        865.        0.00    
   1.585E+08    865.        865.        0.00    
   1.995E+08    865.        865.        0.00    
   2.512E+08    865.        865.        0.00    
   3.162E+08    865.        865.        0.00    
   3.981E+08    865.        865.        0.00    
   5.012E+08    865.        865.        0.00    
   6.310E+08    865.        865.        0.00    
   7.943E+08    865.        865.        0.00    
   1.000E+09    865.        865.        0.00    
   1.259E+09    865.        865.        0.00    
   1.585E+09    865.        865.        0.00    
   1.995E+09    865.        865.        0.00    
   2.512E+09    865.        865.        0.00    
   3.162E+09    865.        865.        0.00    
   3.981E+09    865.        865.        0.00    
