 # E(MeV)  SigT  SigInela  SigEla  (mb)
    1.00        0.00        0.00        0.00    
    1.26        0.00        0.00        0.00    
    1.58        0.00        0.00        0.00    
    2.00        0.00        0.00        0.00    
    2.51        0.00        0.00        0.00    
    3.16        0.00        0.00        0.00    
    3.98        0.00        0.00        0.00    
    5.01        0.00        0.00        0.00    
    6.31        0.00        0.00        0.00    
    7.94        0.00        0.00        0.00    
    10.0        0.00        0.00        0.00    
    12.6        0.00        0.00        0.00    
    15.8        0.00        0.00        0.00    
    20.0        0.00        0.00        0.00    
    25.1        0.00        0.00        0.00    
    31.6        0.00        0.00        0.00    
    39.8        0.00        0.00        0.00    
    50.1        0.00        0.00        0.00    
    63.1        0.00        0.00        0.00    
    79.4        0.00        0.00        0.00    
    100.        0.00        0.00        0.00    
    126.        832.        832.        0.00    
    158.       1.673E+03   1.673E+03    0.00    
    200.       2.332E+03   2.332E+03    0.00    
    251.       2.829E+03   2.829E+03    0.00    
    316.       3.199E+03   3.199E+03    0.00    
    398.       3.492E+03   3.492E+03    0.00    
    501.       3.648E+03   3.648E+03    0.00    
    631.       3.735E+03   3.735E+03    0.00    
    794.       3.649E+03   3.649E+03    0.00    
   1.000E+03   3.541E+03   3.541E+03    0.00    
   1.259E+03   3.489E+03   3.489E+03    0.00    
   1.585E+03   3.450E+03   3.450E+03    0.00    
   1.995E+03   3.418E+03   3.418E+03    0.00    
   2.512E+03   3.342E+03   3.342E+03    0.00    
   3.162E+03   3.343E+03   3.343E+03    0.00    
   3.981E+03   3.337E+03   3.337E+03    0.00    
   5.012E+03   3.375E+03   3.375E+03    0.00    
   6.310E+03   3.414E+03   3.414E+03    0.00    
   7.943E+03   3.464E+03   3.464E+03    0.00    
   1.000E+04   3.502E+03   3.502E+03    0.00    
   1.259E+04   3.512E+03   3.512E+03    0.00    
   1.585E+04   3.510E+03   3.510E+03    0.00    
   1.995E+04   3.498E+03   3.498E+03    0.00    
   2.512E+04   3.471E+03   3.471E+03    0.00    
   3.162E+04   3.473E+03   3.473E+03    0.00    
   3.981E+04   3.475E+03   3.475E+03    0.00    
   5.012E+04   3.476E+03   3.476E+03    0.00    
   6.310E+04   3.477E+03   3.477E+03    0.00    
   7.943E+04   3.478E+03   3.478E+03    0.00    
   1.000E+05   3.478E+03   3.478E+03    0.00    
   1.259E+05   3.479E+03   3.479E+03    0.00    
   1.585E+05   3.479E+03   3.479E+03    0.00    
   1.995E+05   3.479E+03   3.479E+03    0.00    
   2.512E+05   3.479E+03   3.479E+03    0.00    
   3.162E+05   3.479E+03   3.479E+03    0.00    
   3.981E+05   3.479E+03   3.479E+03    0.00    
   5.012E+05   3.479E+03   3.479E+03    0.00    
   6.310E+05   3.479E+03   3.479E+03    0.00    
   7.943E+05   3.479E+03   3.479E+03    0.00    
   1.000E+06   3.479E+03   3.479E+03    0.00    
   1.259E+06   3.479E+03   3.479E+03    0.00    
   1.585E+06   3.479E+03   3.479E+03    0.00    
   1.995E+06   3.479E+03   3.479E+03    0.00    
   2.512E+06   3.479E+03   3.479E+03    0.00    
   3.162E+06   3.479E+03   3.479E+03    0.00    
   3.981E+06   3.478E+03   3.478E+03    0.00    
   5.012E+06   3.478E+03   3.478E+03    0.00    
   6.310E+06   3.478E+03   3.478E+03    0.00    
   7.943E+06   3.478E+03   3.478E+03    0.00    
   1.000E+07   3.478E+03   3.478E+03    0.00    
   1.259E+07   3.478E+03   3.478E+03    0.00    
   1.585E+07   3.478E+03   3.478E+03    0.00    
   1.995E+07   3.478E+03   3.478E+03    0.00    
   2.512E+07   3.478E+03   3.478E+03    0.00    
   3.162E+07   3.478E+03   3.478E+03    0.00    
   3.981E+07   3.478E+03   3.478E+03    0.00    
   5.012E+07   3.478E+03   3.478E+03    0.00    
   6.310E+07   3.478E+03   3.478E+03    0.00    
   7.943E+07   3.478E+03   3.478E+03    0.00    
   1.000E+08   3.478E+03   3.478E+03    0.00    
   1.259E+08   3.478E+03   3.478E+03    0.00    
   1.585E+08   3.477E+03   3.477E+03    0.00    
   1.995E+08   3.477E+03   3.477E+03    0.00    
   2.512E+08   3.477E+03   3.477E+03    0.00    
   3.162E+08   3.477E+03   3.477E+03    0.00    
   3.981E+08   3.477E+03   3.477E+03    0.00    
   5.012E+08   3.477E+03   3.477E+03    0.00    
   6.310E+08   3.477E+03   3.477E+03    0.00    
   7.943E+08   3.477E+03   3.477E+03    0.00    
   1.000E+09   3.477E+03   3.477E+03    0.00    
   1.259E+09   3.477E+03   3.477E+03    0.00    
   1.585E+09   3.477E+03   3.477E+03    0.00    
   1.995E+09   3.477E+03   3.477E+03    0.00    
   2.512E+09   3.477E+03   3.477E+03    0.00    
   3.162E+09   3.477E+03   3.477E+03    0.00    
   3.981E+09   3.477E+03   3.477E+03    0.00    
