 # E(MeV)  SigT  SigInela  SigEla  (mb)
    1.00        0.00        0.00        0.00    
    1.26        0.00        0.00        0.00    
    1.58        0.00        0.00        0.00    
    2.00        0.00        0.00        0.00    
    2.51        0.00        0.00        0.00    
    3.16        0.00        0.00        0.00    
    3.98        0.00        0.00        0.00    
    5.01        0.00        0.00        0.00    
    6.31        0.00        0.00        0.00    
    7.94        0.00        0.00        0.00    
    10.0        0.00        0.00        0.00    
    12.6        0.00        0.00        0.00    
    15.8        0.00        0.00        0.00    
    20.0        0.00        0.00        0.00    
    25.1        0.00        0.00        0.00    
    31.6        0.00        0.00        0.00    
    39.8        0.00        0.00        0.00    
    50.1        0.00        0.00        0.00    
    63.1        364.        364.        0.00    
    79.4       1.155E+03   1.155E+03    0.00    
    100.       1.772E+03   1.772E+03    0.00    
    126.       2.238E+03   2.238E+03    0.00    
    158.       2.612E+03   2.612E+03    0.00    
    200.       2.874E+03   2.874E+03    0.00    
    251.       3.051E+03   3.051E+03    0.00    
    316.       3.141E+03   3.141E+03    0.00    
    398.       3.111E+03   3.111E+03    0.00    
    501.       3.021E+03   3.021E+03    0.00    
    631.       2.932E+03   2.932E+03    0.00    
    794.       2.919E+03   2.919E+03    0.00    
   1.000E+03   2.839E+03   2.839E+03    0.00    
   1.259E+03   2.797E+03   2.797E+03    0.00    
   1.585E+03   2.754E+03   2.754E+03    0.00    
   1.995E+03   2.732E+03   2.732E+03    0.00    
   2.512E+03   2.745E+03   2.745E+03    0.00    
   3.162E+03   2.770E+03   2.770E+03    0.00    
   3.981E+03   2.825E+03   2.825E+03    0.00    
   5.012E+03   2.859E+03   2.859E+03    0.00    
   6.310E+03   2.882E+03   2.882E+03    0.00    
   7.943E+03   2.887E+03   2.887E+03    0.00    
   1.000E+04   2.869E+03   2.869E+03    0.00    
   1.259E+04   2.863E+03   2.863E+03    0.00    
   1.585E+04   2.845E+03   2.845E+03    0.00    
   1.995E+04   2.847E+03   2.847E+03    0.00    
   2.512E+04   2.848E+03   2.848E+03    0.00    
   3.162E+04   2.849E+03   2.849E+03    0.00    
   3.981E+04   2.850E+03   2.850E+03    0.00    
   5.012E+04   2.850E+03   2.850E+03    0.00    
   6.310E+04   2.850E+03   2.850E+03    0.00    
   7.943E+04   2.851E+03   2.851E+03    0.00    
   1.000E+05   2.851E+03   2.851E+03    0.00    
   1.259E+05   2.851E+03   2.851E+03    0.00    
   1.585E+05   2.851E+03   2.851E+03    0.00    
   1.995E+05   2.851E+03   2.851E+03    0.00    
   2.512E+05   2.851E+03   2.851E+03    0.00    
   3.162E+05   2.851E+03   2.851E+03    0.00    
   3.981E+05   2.851E+03   2.851E+03    0.00    
   5.012E+05   2.850E+03   2.850E+03    0.00    
   6.310E+05   2.850E+03   2.850E+03    0.00    
   7.943E+05   2.850E+03   2.850E+03    0.00    
   1.000E+06   2.850E+03   2.850E+03    0.00    
   1.259E+06   2.850E+03   2.850E+03    0.00    
   1.585E+06   2.850E+03   2.850E+03    0.00    
   1.995E+06   2.850E+03   2.850E+03    0.00    
   2.512E+06   2.850E+03   2.850E+03    0.00    
   3.162E+06   2.850E+03   2.850E+03    0.00    
   3.981E+06   2.850E+03   2.850E+03    0.00    
   5.012E+06   2.849E+03   2.849E+03    0.00    
   6.310E+06   2.849E+03   2.849E+03    0.00    
   7.943E+06   2.849E+03   2.849E+03    0.00    
   1.000E+07   2.849E+03   2.849E+03    0.00    
   1.259E+07   2.849E+03   2.849E+03    0.00    
   1.585E+07   2.849E+03   2.849E+03    0.00    
   1.995E+07   2.849E+03   2.849E+03    0.00    
   2.512E+07   2.849E+03   2.849E+03    0.00    
   3.162E+07   2.849E+03   2.849E+03    0.00    
   3.981E+07   2.849E+03   2.849E+03    0.00    
   5.012E+07   2.849E+03   2.849E+03    0.00    
   6.310E+07   2.849E+03   2.849E+03    0.00    
   7.943E+07   2.849E+03   2.849E+03    0.00    
   1.000E+08   2.849E+03   2.849E+03    0.00    
   1.259E+08   2.849E+03   2.849E+03    0.00    
   1.585E+08   2.849E+03   2.849E+03    0.00    
   1.995E+08   2.849E+03   2.849E+03    0.00    
   2.512E+08   2.849E+03   2.849E+03    0.00    
   3.162E+08   2.849E+03   2.849E+03    0.00    
   3.981E+08   2.849E+03   2.849E+03    0.00    
   5.012E+08   2.849E+03   2.849E+03    0.00    
   6.310E+08   2.849E+03   2.849E+03    0.00    
   7.943E+08   2.849E+03   2.849E+03    0.00    
   1.000E+09   2.849E+03   2.849E+03    0.00    
   1.259E+09   2.849E+03   2.849E+03    0.00    
   1.585E+09   2.849E+03   2.849E+03    0.00    
   1.995E+09   2.849E+03   2.849E+03    0.00    
   2.512E+09   2.849E+03   2.849E+03    0.00    
   3.162E+09   2.849E+03   2.849E+03    0.00    
   3.981E+09   2.849E+03   2.849E+03    0.00    
